Wavelength (Ang),Flux
6267.16,0.0423450
6268.59,0.0714709
6270.03,0.0714700
6271.47,0.0520511
6272.90,0.0569047
6274.34,0.0374859
6275.78,0.0132126
6277.21,0.0374840
6278.65,0.0358650
6280.09,0.0391004
6281.53,0.0390995
6282.96,0.0261533
6284.40,0.0496157
6285.84,0.0277697
6287.27,0.0423322
6288.71,0.0423314
6290.15,0.0209708
6291.58,0.0287371
6293.02,0.0384452
6294.46,0.0365025
6295.89,0.0481524
6297.33,0.0481516
6298.77,0.0423253
6300.20,0.0481499
6301.64,0.0345565
6303.08,0.0364974
6304.52,0.0364966
6305.95,0.0539719
6307.39,0.0559128
6308.83,0.0306687
6310.26,0.0462022
6311.70,0.0520268
6313.14,0.0306663
6314.57,0.0248401
6316.01,0.0423154
6317.45,0.0403728
6318.88,0.0190123
6320.32,0.0500802
6321.76,0.0209525
6323.19,0.0423115
6324.63,0.0403689
6326.07,0.0423099
6327.50,0.0384255
6328.94,0.0461919
6330.38,0.0500748
6331.81,0.0481322
6333.25,0.0558986
6334.68,0.0597814
6336.12,0.0364792
6337.56,0.0287113
6338.99,0.0423031
6340.43,0.0190008
6341.87,0.0403598
6343.30,0.0461844
6344.74,0.0248240
6346.18,0.0461830
6347.61,0.0461823
6349.05,0.0461816
6350.49,0.0325883
6351.92,0.0325876
6353.36,0.0442376
6354.79,0.0131683
6356.23,0.0248183
6357.67,0.0403519
6359.10,0.0325841
6360.54,0.0228744
6361.98,0.0286991
6363.41,0.0345238
6364.85,0.0364649
6366.29,0.0500568
6367.72,0.0325800
6369.16,0.0345211
6370.59,0.0306369
6372.03,0.0461706
6373.47,0.0325774
6374.90,0.0500528
6376.34,0.0325761
6377.78,0.0481097
6379.21,0.0306330
6380.65,0.0519920
6382.08,0.0345153
6383.52,0.0383982
6384.96,0.0325722
6386.39,0.0248044
6387.83,0.0228620
6389.26,0.0228614
6390.70,0.0422787
6392.14,0.0306273
6393.57,0.0286850
6395.01,0.0364515
6396.45,0.0364509
6397.88,0.0364503
6399.32,0.0403333
6400.75,0.0267402
6402.19,0.0578082
6403.63,0.0461569
6405.06,0.0519817
6406.50,0.0500393
6407.93,0.0461552
6409.37,0.0383874
6410.81,0.0398432
6412.24,0.0544061
6413.68,0.0616872
6415.11,0.0519777
6416.55,0.0446954
6417.98,0.0446949
6419.42,0.0592578
6420.86,0.0325576
6422.29,0.0665384
6423.73,0.0689651
6425.16,0.0398377
6426.60,0.0616823
6428.04,0.0544001
6429.47,0.0398361
6430.91,0.0446901
6432.34,0.0374078
6433.78,0.0786704
6435.21,0.0592520
6436.65,0.0543970
6438.09,0.0641054
6439.52,0.0422598
6440.96,0.0888623
6442.39,0.0713856
6443.83,0.0733269
6445.26,0.0946862
6446.70,0.0810931
6448.14,0.0869180
6449.57,0.0908011
6451.01,0.0849753
6452.44,0.100509
6453.88,0.127694
6455.31,0.0985664
6456.75,0.0966241
6458.19,0.102449
6459.62,0.119925
6461.06,0.110215
6462.49,0.0985641
6463.93,0.104389
6465.36,0.0577855
6466.80,0.114097
6468.23,0.0849697
6469.67,0.0927365
6471.10,0.0577838
6472.54,0.0674923
6473.98,0.0538993
6475.41,0.0636079
6476.85,0.0383641
6478.28,0.0616652
6479.72,0.0461305
6481.15,0.0383629
6482.59,0.0441879
6484.02,0.0558382
6485.46,0.0655467
6486.90,0.0461284
6488.33,0.0500116
6489.77,0.0849634
6491.20,0.0344765
6492.64,0.0538940
6494.07,0.0325339
6495.51,0.0480678
6496.94,0.0636018
6498.38,0.0480671
6499.81,0.0538921
6501.25,0.0364156
6502.68,0.0558331
6504.12,0.0461238
6505.55,0.0597159
6506.99,0.0635992
6508.42,0.0558316
6509.86,0.0558313
6511.29,0.0538891
6512.73,0.0480634
6514.17,0.0519466
6515.60,0.0577716
6517.04,0.0480623
6518.47,0.0519456
6519.91,0.0713632
6521.34,0.0480613
6522.78,0.0461192
6524.21,0.0733039
6525.65,0.0616529
6527.08,0.0597107
6528.52,0.0558268
6529.95,0.0810698
6531.39,0.0364083
6532.82,0.0519423
6534.26,0.0402912
6535.69,0.0422327
6537.13,0.0461160
6538.56,0.0422321
6540.00,0.0461153
6541.43,0.0441733
6542.87,0.0558237
6544.30,0.0538816
6545.74,0.0364052
6547.17,0.0383467
6548.61,0.0344628
6550.04,0.0111610
6551.48,0.0538802
6552.91,0.0305784
6554.35,0.0383453
6555.78,0.0461121
6557.22,0.0344611
6558.65,0.0364026
6560.09,0.0169845
6561.52,0.0344603
6562.96,0.0266929
6564.39,0.0402852
6565.82,0.0305759
6567.26,0.0577608
6568.69,0.0364008
6570.13,0.0189244
6571.56,0.0480510
6573.00,0.0266911
6574.43,0.0325162
6575.87,0.0208652
6577.30,0.0422247
6578.74,0.0461080
6580.17,0.0480496
6581.61,0.0616419
6583.04,0.0325148
6584.48,0.0344563
6585.91,0.0558158
6587.35,0.0461066
6588.78,0.0305721
6590.21,0.0325136
6591.65,0.0325134
6593.08,0.0499893
6594.52,0.0363966
6595.95,0.0402799
6597.39,0.0363962
6598.82,0.0228034
6600.26,0.0422211
6601.69,0.0383373
6603.13,0.0422207
6604.56,0.0383369
6605.99,0.0247442
6607.43,0.0305694
6608.86,0.0305692
6610.30,0.0422197
6611.73,0.0208598
6613.17,0.0266850
6614.60,0.0363938
6616.04,0.0519279
6617.47,0.0286263
6618.91,0.0519276
6620.34,0.0286259
6621.77,0.0499854
6623.21,0.0266838
6624.64,0.0325090
6626.08,0.0577521
6627.51,0.0266833
6628.95,0.0325085
6630.38,0.0305665
6631.81,0.0286246
6633.25,0.0461005
6634.68,0.0558093
6636.12,0.0208569
6637.55,0.0363911
6638.99,0.0286238
6640.42,0.0344490
6641.85,0.0441578
6643.29,0.0460995
6644.72,0.0441575
6646.16,0.0363902
6647.59,0.0480408
6649.03,0.0247392
6650.46,0.0286227
6651.89,0.0227972
6653.33,0.0286224
6654.76,0.0286223
6656.20,0.0363893
6657.63,0.0596907
6659.06,0.0441562
6660.50,0.0635740
6661.93,0.0305634
6663.37,0.0363887
6664.80,0.0422140
6666.24,0.0538646
6667.67,0.0383301
6669.10,0.0325047
6670.54,0.0305628
6671.97,0.0402716
6673.41,0.0519223
6674.84,0.0558057
6676.27,0.0305623
6677.71,0.0732817
6679.14,0.0499801
6680.58,0.0422128
6682.01,0.0596888
6683.44,0.0499798
6684.88,0.0422125
6686.31,0.0635721
6687.75,0.0771646
6689.18,0.0713391
6690.61,0.0635719
6692.05,0.0907569
6693.48,0.0907568
6694.92,0.0888149
6696.35,0.0810477
6697.78,0.0829894
6699.22,0.135418
6700.65,0.139301
6702.08,0.108232
6703.52,0.114058
6704.95,0.133476
6706.39,0.152893
6707.82,0.139301
6709.25,0.193671
6710.69,0.137359
6712.12,0.168427
6713.56,0.162602
6714.99,0.182020
6716.42,0.147068
6717.86,0.133475
6719.29,0.162602
6720.72,0.158718
6722.16,0.187845
6723.59,0.193670
6725.03,0.152893
6726.46,0.174252
6727.89,0.135416
6729.33,0.178136
6730.76,0.164543
6732.19,0.149009
6733.63,0.222797
6735.06,0.195612
6736.49,0.234448
6737.93,0.232506
6739.36,0.232506
6740.80,0.236389
6742.23,0.277167
6743.66,0.319886
6745.10,0.350955
6746.53,0.290759
6747.96,0.249982
6749.40,0.228622
6750.83,0.292701
6752.26,0.213088
6753.70,0.244156
6755.13,0.189786
6756.56,0.183961
6758.00,0.154834
6759.43,0.143183
6760.86,0.129590
6762.30,0.114056
6763.73,0.0868710
6765.17,0.0791038
6766.60,0.0946382
6768.03,0.0519187
6769.47,0.0519187
6770.90,0.0732784
6772.33,0.0635695
6773.77,0.0460933
6775.20,0.0674530
6776.63,0.0499769
6778.07,0.0460933
6779.50,0.0480351
6780.93,0.0519187
6782.37,0.0460933
6783.80,0.0383262
6785.23,0.0519187
6786.67,0.0286172
6788.10,0.0441516
6789.53,0.0383262
6790.97,0.0538605
6792.40,0.0538606
6793.83,0.0480352
6795.27,0.0363845
6796.70,0.0460934
6798.13,0.0558024
6799.56,0.0558024
6801.00,0.0305592
6802.43,0.0538607
6803.86,0.0558025
6805.30,0.0344428
6806.73,0.0422100
6808.16,0.0499772
6809.60,0.0286175
6811.03,0.0499772
6812.46,0.0402683
6813.90,0.0189086
6815.33,0.0247340
6816.76,0.0499773
6818.20,0.0266759
6819.63,0.0286177
6821.06,0.0441520
6822.50,0.0305595
6823.93,0.0441521
6825.36,0.0344432
6826.79,0.0422104
6828.23,0.0344432
6829.66,0.0460940
6831.09,0.0363851
6832.53,0.0344434
6833.96,0.0383270
6835.39,0.0300744
6836.83,0.0203655
6838.26,0.0761920
6839.69,0.0252200
6841.12,0.0349290
6842.56,0.0203657
6843.99,0.0519198
6845.42,0.00822954
6846.86,0.0325020
6848.29,0.0349293
6849.72,0.0203659
6851.15,0.0494928
6852.59,0.0551564
6854.02,0.0292659
6855.45,0.0292659
6856.89,0.0648655
6858.32,0.0260297
6859.75,0.0454477
6861.18,0.0357388
6862.62,0.0357388
6864.05,0.0252209
6865.48,0.0470661
6866.92,0.0349299
6868.35,0.0349300
6869.78,0.0883293
6871.21,0.0567752
6872.65,0.0325029
6874.08,0.0373574
6875.51,0.0422120
6876.94,0.0681026
6878.38,0.0939932
6879.81,0.0810480
6881.24,0.0883298
6882.68,0.0956115
6884.11,0.0567758
6885.54,0.102893
6886.97,0.0737666
6888.41,0.102894
6889.84,0.0761939
6891.27,0.0883302
6892.70,0.0810485
6894.14,0.0810486
6895.57,0.0640580
6897.00,0.0931849
6898.43,0.0907578
6899.87,0.0956123
6901.30,0.0786217
6902.73,0.0786218
6904.17,0.0771655
6905.60,0.0519223
6907.03,0.0363880
6908.46,0.0635732
6909.90,0.0538643
6911.33,0.0480390
6912.76,0.0422137
6914.19,0.0227958
6915.62,0.0422138
6917.06,0.0422139
6918.49,0.0325050
6919.92,0.0363887
6921.35,0.0208544
6922.79,0.0305634
6924.22,0.0247381
6925.65,0.0305636
6927.08,0.0227965
6928.52,0.0150294
6929.95,0.0305638
6931.38,0.0344474
6932.81,0.0189132
6934.25,0.0266804
6935.68,0.0150298
6937.11,0.0150298
6938.54,0.0169717
6939.98,0.0130882
6941.41,0.0266808
6942.84,0.0499824
6944.27,0.0247392
6945.71,0.0208557
6947.14,0.0383319
6948.57,0.00920507
6950.00,0.0266813
6951.43,0.00920522
6952.87,0.0286232
6954.30,0.0325069
6955.73,0.0208562
6957.16,0.0344488
6958.60,0.0305653
6960.03,0.0266818
6961.46,0.0305655
6962.89,0.0286238
6964.32,0.0266820
6965.76,0.0247403
6967.19,0.0247404
6968.62,0.0208569
6970.05,0.0305659
6971.49,0.0208571
6972.92,0.0247407
6974.35,0.0247408
6975.78,0.0111483
6977.21,0.0208574
6978.65,0.0189156
6980.08,0.0363918
6981.51,0.0461009
6982.94,0.0227995
6984.37,0.0111488
6985.81,0.0227996
6987.24,0.0266833
6988.67,0.0247416
6990.10,0.0208581
6991.53,0.0169746
6992.97,0.0266836
6994.40,0.0344508
6995.83,0.0228002
6997.26,0.0130913
6998.69,0.0111496
7000.13,0.0130914
7001.56,0.0344512
7002.99,0.00726621
7004.42,0.0266842
7005.85,0.0208589
7007.29,0.0189172
7008.72,0.0344516
7010.15,0.0169755
7011.58,0.0286264
7013.01,0.00581039
7014.45,0.0276556
7015.88,0.0325102
7017.31,0.0252285
7018.74,0.0357466
7020.17,0.0195651
7021.60,0.0228015
7023.04,0.0130926
7024.47,0.0325106
7025.90,0.0292744
7027.33,0.0422197
7028.76,0.0130929
7030.20,0.0357472
7031.63,0.0130930
7033.06,0.0454563
7034.49,0.0195658
7035.92,0.0260385
7037.35,0.0130933
7038.79,0.00662075
7040.22,0.0292751
7041.65,0.0422204
7043.08,0.0276570
7044.51,0.0252299
7045.95,0.0228027
7047.38,0.0305699
7048.81,0.0111521
7050.24,0.0325118
7051.67,0.0169776
7053.10,0.00726868
7054.54,0.0266867
7055.97,0.0247449
7057.40,0.0286286
7058.83,0.00726894
7060.26,0.0305705
7061.69,0.0286288
7063.13,0.0266870
7064.56,0.0266871
7065.99,0.0247454
7067.42,0.0189200
7068.85,0.0208619
7070.28,0.0286291
7071.71,0.0169784
7073.15,0.0150367
7074.58,0.0228039
7076.01,0.0247458
7077.44,0.0286294
7078.87,0.0208623
7080.30,0.0247459
7081.74,0.0247460
7083.17,0.0150371
7084.60,0.0266879
7086.03,0.0189208
7087.46,0.0189208
7088.89,0.0422224
7090.32,0.0228045
7091.76,0.0305717
7093.19,0.0189210
7094.62,0.0111539
7096.05,0.0189211
7097.48,0.0247465
7098.91,0.0266884
7100.34,0.0169795
7101.78,0.0208631
7103.21,0.0266885
7104.64,0.0266885
7106.07,0.0130960
7107.50,0.0286304
7108.93,0.0130961
7110.36,0.0111544
7111.80,0.0344559
7113.23,0.0325141
7114.66,0.0208634
7116.09,0.0325142
7117.52,0.0150381
7118.95,0.0247471
7120.38,0.0325143
7121.81,0.0266890
7123.25,0.0169801
7124.68,0.0325144
7126.11,0.0208637
7127.54,0.0111548
7128.97,0.0169802
7130.40,0.0286309
7131.83,0.0208638
7133.26,0.0228056
7134.70,0.0150385
7136.13,0.0189221
7137.56,0.0111549
7138.99,0.0208639
7140.42,0.0189221
7141.85,0.0150386
7143.28,0.00144606
7144.71,0.0266894
7146.15,0.0189222
7147.58,0.0266894
7149.01,0.0111551
7150.44,0.0130969
7151.87,0.0130969
7153.30,0.0189223
7154.73,0.0286312
7156.16,0.0189223
7157.59,0.0266895
7159.03,0.0111551
7160.46,0.0208641
7161.89,0.0228059
7163.32,0.0325149
7164.75,0.0169805
7166.18,0.0325149
7167.61,0.0169805
7169.04,0.0208641
7170.47,0.0247477
7171.90,0.0130969
7173.34,0.0150387
7174.77,0.00921335
7176.20,0.0169805
7177.63,0.0169805
7179.06,0.0305730
7180.49,0.0286312
7181.92,0.0305730
7183.35,0.00727149
7184.78,0.0111551
7186.21,0.0228058
7187.65,0.0228058
7189.08,0.0228058
7190.51,0.0130968
7191.94,0.0189221
7193.37,0.0247475
7194.80,0.0228057
7196.23,0.0130967
7197.66,0.0247474
7199.09,0.0130966
7200.52,0.0208638
7201.95,0.0325145
7203.39,0.0130965
7204.82,0.0286308
7206.25,0.0266890
7207.68,0.0130964
7209.11,0.00144566
7210.54,0.0169800
7211.97,0.0247471
7213.40,0.0189217
7214.83,0.0325142
7216.26,0.00921262
7217.69,0.0305723
7219.12,0.0228051
7220.56,0.0286304
7221.99,0.0228050
7223.42,0.0169795
7224.85,0.0266884
7226.28,0.0266884
7227.71,0.00727042
7229.14,0.0286301
7230.57,0.00921209
7232.00,0.0169792
7233.43,0.0266881
7234.86,0.0228045
7236.29,0.0286298
7237.72,0.00532820
7239.15,0.0480475
7240.58,0.0111534
7242.02,0.0286295
7243.45,0.0130951
7244.88,0.0247458
7246.31,0.0247457
7247.74,0.0228038
7249.17,0.0189201
7250.60,0.0305708
7252.03,0.0150364
7253.46,0.0228035
7254.89,0.0228034
7256.32,0.0363958
7257.75,0.0189196
7259.18,0.0228031
7260.61,0.0169777
7262.04,0.0169776
7263.47,0.0189193
7264.91,0.0169774
7266.34,0.0305698
7267.77,0.00532643
7269.20,0.0247442
7270.63,0.0150352
7272.06,0.0228022
7273.49,0.0189185
7274.92,0.0169766
7276.35,0.0130929
7277.78,0.0150346
7279.21,0.0189181
7280.64,0.00338365
7282.07,0.0189179
7283.50,0.0189177
7284.93,0.00920866
7286.36,0.0286264
7287.79,0.0189174
7289.22,0.0169754
7290.65,0.0305679
7292.08,0.0208588
7293.51,0.0150333
7294.94,0.0189167
7296.38,0.0286255
7297.81,0.0189164
7299.24,0.0325088
7300.67,0.0305669
7302.10,0.0266832
7303.53,0.0189159
7304.96,0.0286247
7306.39,0.0208573
7307.82,0.0208572
7309.25,0.0325078
7310.68,0.0266823
7312.11,0.0169731
7313.54,0.0247401
7314.97,0.0363907
7316.40,0.0150309
7317.83,0.0150307
7319.26,0.0286231
7320.69,0.0208557
7322.12,0.0286227
7323.55,0.0344479
7324.98,0.0189134
7326.41,0.00726248
7327.84,0.0189130
7329.27,0.0266800
7330.70,0.0247381
7332.13,0.0325050
7333.56,0.0150287
7334.99,0.0130867
7336.42,0.0189119
7337.85,0.0111446
7339.28,0.0111444
7340.71,0.0150277
7342.14,0.0150275
7343.57,0.00337658
7345.00,0.0227943
7346.43,0.0208523
7347.86,0.0344446
7349.29,0.0130847
7350.72,0.0227934
7352.15,0.00337531
7353.58,0.00337509
7355.01,0.00920024
7356.44,0.00920001
7357.87,0.0169670
7359.30,0.0169667
7360.73,0.0208501
7362.17,0.0169663
7363.59,0.0208496
7365.02,0.0208494
7366.46,0.0169655
7367.89,0.0130817
7369.31,0.0286158
7370.75,0.00919764
7372.18,0.0189063
7373.60,0.0227897
7375.04,0.00531330
7376.46,0.0189056
7377.90,0.0208471
7379.33,0.00725431
7380.75,0.0383227
7382.19,0.0150209
7383.61,0.00919530
7385.04,0.0189040
7386.47,0.0208455
7387.90,0.0247288
7389.33,0.0247285
7390.76,0.0266700
7392.19,0.0227862
7393.62,0.0305531
7395.05,0.0247274
7396.48,0.0169599
7397.91,0.0227850
7399.34,0.0247265
7400.77,0.0189008
7402.20,0.0227841
7403.63,0.0111331
7405.06,0.0188999
7406.49,0.00724887
7407.92,0.0111321
7409.35,0.0111318
7410.78,0.0188987
7412.21,0.0130730
7413.64,0.00142191
7415.07,0.0305485
7416.50,0.0169556
7417.93,0.0188971
7419.36,0.0208385
7420.79,0.0324889
7422.22,0.0150125
7423.65,0.0150121
7425.08,0.0208372
7426.51,0.0305458
7427.94,0.0266618
7429.37,0.00335999
7430.80,0.00335964
7432.23,0.0130682
7433.66,0.0227768
7435.09,0.0154948
7436.52,0.0154944
7437.95,0.0106395
7439.38,0.00821194
7440.81,0.00821157
7442.24,0.0179201
7443.67,0.0154925
7445.10,0.0203466
7446.53,0.00821005
7447.96,0.0349093
7449.39,0.0106365
7450.82,0.0130634
7452.25,0.0154902
7453.67,0.0203443
7455.10,0.0276256
7456.53,0.0251980
7457.96,0.0179158
7459.39,0.0227699
7460.82,0.00917696
7462.25,0.0208273
7463.68,0.00917612
7465.11,0.0188847
7466.54,-0.000533676
7467.97,0.0111166
7469.40,0.0169416
7470.83,0.00917399
7472.26,0.0247079
7473.69,0.0111149
7475.12,0.0227652
7476.55,0.0208230
7477.98,0.0149972
7479.41,0.0247057
7480.84,0.0169381
7482.27,0.0266466
7483.70,0.0324715
7485.12,0.0285874
7486.55,0.0188780
7487.98,0.0227611
7489.41,0.0266442
7490.84,0.0169348
7492.27,0.0149925
7493.70,0.0130503
7495.13,0.0344095
7496.56,0.0208165
7497.99,0.0285831
7499.42,0.0305244
7500.85,0.0169314
7502.28,0.0227563
7503.71,0.0111050
7505.14,0.0227553
7506.57,0.0188712
7508.00,0.0188707
7509.43,-0.00831493
7510.85,0.0149860
7512.28,0.0169273
7513.71,0.0227522
7515.14,0.0130427
7516.57,0.00139141
7518.00,0.0246924
7519.43,0.0402262
7520.86,0.0285749
7522.29,0.0227490
7523.72,0.0130395
7525.15,0.0169225
7526.58,0.0130384
7528.01,0.0285721
7529.44,0.0266298
7530.87,0.0305128
7532.29,0.0110943
7533.72,0.0169191
7535.15,0.0266275
7536.58,0.0285687
7538.01,0.0169174
7539.44,0.00575151
7540.87,-0.00638527
7542.30,0.0178865
7543.73,0.0227404
7545.16,0.0251671
7546.59,0.00574855
7548.02,0.0178841
7549.45,0.0251653
7550.88,-0.00153499
7552.30,0.0154551
7553.73,0.0106000
7555.16,0.00817212
7556.59,0.00817150
7558.02,0.0154526
7559.45,0.00817024
7560.88,0.0178786
7562.31,0.0162598
7563.74,0.0194954
7565.17,0.0227311
7566.60,0.00978520
7568.03,0.0203026
7569.45,0.0154475
7570.88,0.0105923
7572.31,0.0178734
7573.74,0.0154455
7575.17,0.0154448
7576.60,0.0227258
7578.03,0.00816174
7579.46,0.00816106
7580.89,0.0251510
7582.32,0.000877973
7583.75,0.0202952
7585.17,0.0130128
7586.60,0.0105848
7588.03,0.0154386
7589.46,0.0227196
7590.89,0.0246607
7592.32,0.0188346
7593.75,0.0207757
7595.18,0.00912425
7596.61,0.0207743
7598.04,0.0110646
7599.46,0.0130057
7600.89,0.00717955
7602.32,0.0304803
7603.75,0.00523628
7605.18,0.0265952
7606.61,0.00717658
7608.04,0.00523403
7609.47,0.0168840
7610.90,0.0188251
7612.33,0.00523175
7613.75,-0.00253618
7615.18,0.0149392
7616.61,0.0188220
7618.04,0.0207630
7619.47,0.0149368
7620.90,0.00716888
7622.33,0.0304696
7623.76,0.0168763
7625.19,0.0149337
7626.62,0.0188165
7628.04,0.0129903
7629.47,0.0110477
7630.90,0.0168722
7632.33,0.0149296
7633.76,0.0168706
7635.19,0.00716081
7636.62,0.0226943
7638.05,0.0110427
7639.48,0.0246344
7640.90,-0.000609688
7642.33,0.00715663
7643.76,0.0188065
7645.19,0.0168639
7646.62,0.0304556
7648.05,0.00521143
7649.48,0.00715235
7650.91,0.0149186
7652.33,0.00715061
7653.76,0.00132436
7655.19,0.0110324
7656.62,0.00326439
7658.05,0.0110307
7659.48,0.0110298
7660.91,0.00520351
7662.34,0.00131902
7663.76,0.00520170
7665.19,0.0187933
7666.62,0.0110253
7668.05,0.00325717
7669.48,0.00519804
7670.91,0.0226732
7672.34,0.0149051
7673.77,0.0284968
7675.19,0.0168451
7676.62,0.00907696
7678.05,0.00519244
7679.48,0.0168422
7680.91,0.0187831
7682.34,0.0168403
7683.77,0.0148976
7685.20,0.0148966
7686.62,-0.000638697
7688.05,0.0246036
7689.48,0.0129519
7690.91,-0.000641634
7692.34,0.00129917
7693.77,0.00712355
7695.20,0.00906435
7696.62,0.0187723
7698.05,0.00129518
7699.48,0.00323596
7700.91,0.00711853
7702.34,0.0168265
7703.77,0.0207090
7705.20,0.00711547
7706.62,0.00517265
7708.05,0.00711340
7709.48,0.00711237
7710.91,0.00905311
7712.34,0.0304118
7713.77,0.00322564
7715.20,0.0109918
7716.62,-0.00260185
7718.05,0.0129314
7719.48,0.0148721
7720.91,0.00322032
7722.34,0.00710282
7723.77,0.0265197
7725.20,0.00515886
7726.62,0.00127419
7728.05,0.00709847
7729.48,0.0168063
7730.91,0.00903805
7732.34,0.00903695
7733.77,0.0109776
7735.20,0.0129183
7736.62,0.00126643
7738.05,0.0187414
7739.48,0.00320596
7740.91,0.00514662
7742.34,0.00708727
7743.77,0.0148533
7745.20,-0.00456578
7746.62,0.00514203
7748.05,0.00902445
7749.48,0.00319791
7750.91,0.00513854
7752.34,0.00707916
7753.77,0.0206705
7755.19,0.00901859
7756.62,0.00319203
7758.05,0.0148416
7759.48,0.00124785
7760.91,0.0148392
7762.34,0.00707082
7763.76,-0.00263934
7765.19,0.0148356
7766.62,0.00512539
7768.05,0.00706596
7769.48,0.00706473
7770.91,0.0187142
7772.33,0.00900405
7773.76,0.00511922
7775.19,0.00705977
7776.62,0.00900031
7778.05,0.0167662
7779.48,0.0128814
7780.91,0.0148219
7782.33,0.00511167
7783.76,0.0128776
7785.19,0.0245270
7786.62,-0.00265933
7788.05,-0.00460241
7789.48,0.0186978
7790.90,0.0284054
7792.33,0.00898623
7793.76,0.00704313
7795.19,0.00121644
7796.62,0.00704050
7798.04,-0.000727993
7799.47,0.0148050
7800.90,0.00897830
7802.33,0.00897696
7803.76,0.00703383
7805.19,0.0147996
7806.61,0.00897292
7808.04,0.00120440
7809.47,0.0128538
7810.90,-0.00850729
7812.33,0.0128510
7813.76,0.00314071
7815.18,0.0167319
7816.61,0.00702152
7818.04,0.0186709
7819.47,0.00505467
7820.90,0.00700253
7822.32,0.0264265
7823.75,0.00313103
7825.18,0.00507883
7826.61,0.00896841
7828.04,0.00703260
7829.47,0.00898035
7830.89,0.00704450
7832.32,0.0128758
7833.75,-0.000710834
7835.18,-0.00264673
7836.61,0.00124272
7838.03,0.00707395
7839.46,0.0109634
7840.89,0.0129110
7842.32,0.0168004
7843.75,0.0109808
7845.17,0.00710295
